PE UV       SUBTECH     SPECTRUM    ASCII       PEDS        4.00        
   -1
Sample4.Sample.ASC
22/07/14
10:11:29.00
22/07/14
10:11:29.00
Michael Matus
NG11 #68 0,1 %
250.000000
1
Lambda 1050+
1060L2011032
PerkinElmer UV WinLab 7.1.0.68 / 2.02.11 Lambda 900 UV/VIS/NIR, May 23 2018 11:23:04

0
0
3350/servo 1800.8/servo 860.8/2
0
0
UV/VIS
1
1
1
CommonBeamDepol,RBeamAtt,SBeamAtt,uv/vis/nir detector, TDS WB InGaAs Detector
0
0
0
0
Program
Program
3350/servo 1800.8/servo 860.8/2
3350/0.2 1800.8/0.2 860.8/0.2
3350/0.2 1800.8/0.2 860.8/0.2
0
3350/1.00 1800.8/1.00
 
 
 
0
 
860.8
319.2
1800.8 860.8
Front
100
on
S:100 R:0.1
 
0
0
0
 
0
 
 
 
0
 
 
0
0
0
0
0
 
 
 
 
0
0


0
0
#HDR
-1
-1
#GR
nm
%T
1.0
0.0
900.000000
-1.000000
651
8
60.365619
0.000005
#DATA
900.000000	40.225955
899.000000	40.554901
898.000000	41.307550
897.000000	40.619263
896.000000	41.230961
895.000000	41.403459
894.000000	41.382721
893.000000	41.217612
892.000000	42.065135
891.000000	42.421322
890.000000	42.319484
889.000000	42.002464
888.000000	42.090009
887.000000	43.813187
886.000000	42.404438
885.000000	41.914470
884.000000	42.379253
883.000000	43.400758
882.000000	41.740029
881.000000	42.305910
880.000000	41.898669
879.000000	42.718904
878.000000	42.810063
877.000000	42.476582
876.000000	43.503285
875.000000	44.075354
874.000000	43.301788
873.000000	43.246675
872.000000	44.388193
871.000000	42.988532
870.000000	41.680856
869.000000	44.307352
868.000000	45.561888
867.000000	44.329435
866.000000	44.629038
865.000000	43.194922
864.000000	44.859893
863.000000	45.124117
862.000000	43.960055
861.000000	45.609465
860.000000	45.388771
859.000000	32.806544
858.000000	31.290778
857.000000	30.749083
856.000000	32.081751
855.000000	33.639752
854.000000	32.157688
853.000000	33.915918
852.000000	34.551670
851.000000	35.001177
850.000000	34.771916
849.000000	34.984328
848.000000	35.296507
847.000000	37.445533
846.000000	35.977980
845.000000	37.523937
844.000000	39.398732
843.000000	38.789378
842.000000	39.413302
841.000000	40.321081
840.000000	39.948069
839.000000	41.052095
838.000000	40.350059
837.000000	41.160559
836.000000	41.712896
835.000000	40.807804
834.000000	42.886699
833.000000	43.214855
832.000000	42.823971
831.000000	44.123281
830.000000	44.496004
829.000000	44.172210
828.000000	45.012746
827.000000	44.632163
826.000000	45.928832
825.000000	45.425708
824.000000	45.023369
823.000000	46.490687
822.000000	45.825482
821.000000	45.904596
820.000000	46.087602
819.000000	46.122276
818.000000	46.897102
817.000000	46.818489
816.000000	46.250310
815.000000	48.337825
814.000000	47.795247
813.000000	47.735377
812.000000	47.944346
811.000000	48.164452
810.000000	48.249781
809.000000	47.447173
808.000000	47.477738
807.000000	48.937345
806.000000	48.168649
805.000000	48.320935
804.000000	48.560558
803.000000	49.051121
802.000000	48.628849
801.000000	48.468345
800.000000	48.874750
799.000000	49.871237
798.000000	49.061220
797.000000	48.890120
796.000000	49.458121
795.000000	49.101202
794.000000	49.144568
793.000000	49.323160
792.000000	49.052339
791.000000	49.408478
790.000000	49.712721
789.000000	50.542473
788.000000	50.931044
787.000000	50.188767
786.000000	50.234156
785.000000	50.618769
784.000000	50.202024
783.000000	50.587379
782.000000	50.594255
781.000000	50.335420
780.000000	50.205734
779.000000	50.433603
778.000000	51.739057
777.000000	52.185882
776.000000	50.473483
775.000000	50.982747
774.000000	51.261652
773.000000	51.299331
772.000000	51.540433
771.000000	52.152624
770.000000	52.277795
769.000000	51.559221
768.000000	51.199610
767.000000	51.875777
766.000000	51.173433
765.000000	51.311903
764.000000	52.773149
763.000000	52.813794
762.000000	52.622333
761.000000	52.878387
760.000000	53.160802
759.000000	53.212437
758.000000	52.653566
757.000000	52.699883
756.000000	52.770470
755.000000	52.829313
754.000000	53.521020
753.000000	53.709607
752.000000	53.529934
751.000000	53.970479
750.000000	53.830829
749.000000	53.810433
748.000000	53.843731
747.000000	54.140425
746.000000	54.772927
745.000000	54.325090
744.000000	53.912035
743.000000	54.568050
742.000000	54.471245
741.000000	54.548309
740.000000	54.807494
739.000000	54.489709
738.000000	54.915589
737.000000	54.423957
736.000000	54.456297
735.000000	55.284738
734.000000	55.027793
733.000000	54.885702
732.000000	55.154103
731.000000	54.902348
730.000000	54.880118
729.000000	54.814414
728.000000	55.275671
727.000000	55.807930
726.000000	54.807418
725.000000	54.735958
724.000000	54.968906
723.000000	54.796950
722.000000	55.379593
721.000000	55.597570
720.000000	55.326281
719.000000	55.264054
718.000000	55.200191
717.000000	55.729345
716.000000	55.549627
715.000000	55.291510
714.000000	55.355989
713.000000	55.348209
712.000000	54.651281
711.000000	54.854488
710.000000	55.241572
709.000000	55.221615
708.000000	55.628100
707.000000	55.359571
706.000000	56.037520
705.000000	55.670734
704.000000	55.072277
703.000000	55.268068
702.000000	55.114336
701.000000	54.524711
700.000000	54.654806
699.000000	54.491093
698.000000	54.893045
697.000000	54.556559
696.000000	54.838072
695.000000	55.384736
694.000000	54.792561
693.000000	54.587013
692.000000	54.546732
691.000000	54.653921
690.000000	54.870802
689.000000	54.550382
688.000000	53.848525
687.000000	53.440015
686.000000	53.030513
685.000000	53.440148
684.000000	53.212776
683.000000	53.012898
682.000000	53.709348
681.000000	53.010396
680.000000	52.980839
679.000000	53.398662
678.000000	52.634367
677.000000	52.429950
676.000000	52.316455
675.000000	52.220251
674.000000	52.879663
673.000000	52.087874
672.000000	51.660927
671.000000	52.023391
670.000000	51.940721
669.000000	51.993279
668.000000	52.152748
667.000000	51.461512
666.000000	51.239502
665.000000	51.578138
664.000000	51.970777
663.000000	51.507438
662.000000	51.441511
661.000000	51.677509
660.000000	51.571400
659.000000	51.082839
658.000000	51.314369
657.000000	50.988636
656.000000	51.191027
655.000000	51.781631
654.000000	51.114963
653.000000	51.540249
652.000000	51.825260
651.000000	51.906264
650.000000	51.953759
649.000000	51.485542
648.000000	51.549744
647.000000	50.790364
646.000000	50.864358
645.000000	51.113427
644.000000	52.207872
643.000000	50.861365
642.000000	51.121109
641.000000	51.765134
640.000000	51.354698
639.000000	51.560780
638.000000	51.299287
637.000000	51.595812
636.000000	52.128899
635.000000	50.723650
634.000000	51.814473
633.000000	51.727953
632.000000	51.676755
631.000000	51.869451
630.000000	51.322658
629.000000	52.673621
628.000000	51.905656
627.000000	51.282609
626.000000	52.151965
625.000000	52.710993
624.000000	51.236268
623.000000	52.059524
622.000000	51.719530
621.000000	51.796034
620.000000	51.394354
619.000000	52.352616
618.000000	52.818225
617.000000	52.198206
616.000000	51.709372
615.000000	52.699210
614.000000	51.888508
613.000000	52.590942
612.000000	52.044159
611.000000	51.724673
610.000000	52.584723
609.000000	52.220131
608.000000	51.275186
607.000000	52.534554
606.000000	51.709600
605.000000	52.258041
604.000000	52.524257
603.000000	52.046453
602.000000	52.467213
601.000000	52.049199
600.000000	52.560637
599.000000	52.774480
598.000000	52.271009
597.000000	52.125278
596.000000	52.589760
595.000000	51.494193
594.000000	52.159263
593.000000	52.448540
592.000000	52.273996
591.000000	52.498883
590.000000	51.524384
589.000000	52.936642
588.000000	52.834408
587.000000	52.125069
586.000000	52.247383
585.000000	52.739235
584.000000	53.145583
583.000000	52.939828
582.000000	52.356281
581.000000	53.136311
580.000000	53.716407
579.000000	53.503806
578.000000	53.416437
577.000000	53.608845
576.000000	53.758307
575.000000	53.805819
574.000000	53.798198
573.000000	53.688797
572.000000	54.736450
571.000000	54.249455
570.000000	54.772593
569.000000	55.249852
568.000000	54.080877
567.000000	54.621048
566.000000	54.996405
565.000000	55.506929
564.000000	55.215436
563.000000	54.243674
562.000000	54.273238
561.000000	53.841645
560.000000	54.151245
559.000000	54.638493
558.000000	54.182074
557.000000	54.779178
556.000000	54.959944
555.000000	54.404703
554.000000	54.613445
553.000000	54.159058
552.000000	54.382975
551.000000	54.552856
550.000000	54.363535
549.000000	54.656809
548.000000	54.626706
547.000000	53.897702
546.000000	54.301036
545.000000	54.492180
544.000000	54.733383
543.000000	54.804554
542.000000	54.302811
541.000000	54.168607
540.000000	54.196641
539.000000	53.742976
538.000000	53.655991
537.000000	53.444470
536.000000	53.600342
535.000000	53.706131
534.000000	53.326792
533.000000	53.728982
532.000000	53.780963
531.000000	53.429262
530.000000	52.974733
529.000000	52.753135
528.000000	53.053177
527.000000	52.625305
526.000000	52.017119
525.000000	52.494683
524.000000	52.728406
523.000000	51.738657
522.000000	52.197880
521.000000	52.575696
520.000000	52.386355
519.000000	52.265310
518.000000	52.588292
517.000000	53.252590
516.000000	53.645068
515.000000	53.748776
514.000000	55.042266
513.000000	55.681954
512.000000	55.787689
511.000000	57.032067
510.000000	58.222829
509.000000	58.572504
508.000000	58.924875
507.000000	59.568838
506.000000	60.201844
505.000000	60.027666
504.000000	59.770976
503.000000	60.365619
502.000000	59.787636
501.000000	59.325251
500.000000	59.393212
499.000000	59.301610
498.000000	59.192340
497.000000	58.506717
496.000000	58.382487
495.000000	58.289113
494.000000	57.250738
493.000000	56.904834
492.000000	56.673348
491.000000	55.923981
490.000000	55.679876
489.000000	55.785967
488.000000	55.432029
487.000000	54.643352
486.000000	54.158414
485.000000	54.143178
484.000000	53.808644
483.000000	52.422498
482.000000	51.333491
481.000000	50.631990
480.000000	50.368062
479.000000	50.350900
478.000000	51.167089
477.000000	52.209146
476.000000	52.353598
475.000000	51.882656
474.000000	52.203545
473.000000	52.861999
472.000000	52.582304
471.000000	52.502577
470.000000	52.941344
469.000000	54.119940
468.000000	54.499034
467.000000	54.503194
466.000000	55.617455
465.000000	55.924664
464.000000	55.767276
463.000000	56.574620
462.000000	56.754631
461.000000	56.971051
460.000000	57.123459
459.000000	57.123861
458.000000	57.091231
457.000000	56.488167
456.000000	56.370534
455.000000	56.535376
454.000000	55.671515
453.000000	55.542492
452.000000	55.194448
451.000000	54.293486
450.000000	54.019425
449.000000	53.904446
448.000000	53.592980
447.000000	53.097236
446.000000	52.124767
445.000000	51.708124
444.000000	51.529254
443.000000	50.455382
442.000000	50.332432
441.000000	50.676691
440.000000	50.750754
439.000000	51.209055
438.000000	51.015388
437.000000	51.836548
436.000000	51.334970
435.000000	50.644728
434.000000	51.405720
433.000000	51.633606
432.000000	52.022045
431.000000	51.594376
430.000000	50.942865
429.000000	51.570151
428.000000	51.335536
427.000000	50.839059
426.000000	51.285911
425.000000	50.752744
424.000000	50.349130
423.000000	51.131805
422.000000	50.446381
421.000000	49.961310
420.000000	49.580863
419.000000	50.164728
418.000000	50.444096
417.000000	50.128974
416.000000	49.834916
415.000000	50.487968
414.000000	50.215376
413.000000	50.692534
412.000000	50.613817
411.000000	50.569580
410.000000	51.133420
409.000000	51.475113
408.000000	52.008395
407.000000	52.477668
406.000000	51.549587
405.000000	52.207150
404.000000	52.246946
403.000000	52.878227
402.000000	52.960805
401.000000	52.541665
400.000000	52.809960
399.000000	52.508108
398.000000	51.283483
397.000000	51.123708
396.000000	50.894089
395.000000	50.306714
394.000000	50.232130
393.000000	49.436173
392.000000	48.688365
391.000000	48.138394
390.000000	46.039675
389.000000	45.789208
388.000000	44.319797
387.000000	41.765681
386.000000	40.848499
385.000000	38.767086
384.000000	36.594120
383.000000	35.166088
382.000000	33.598691
381.000000	32.256008
380.000000	30.903396
379.000000	29.613146
378.000000	17.320677
377.000000	19.502316
376.000000	21.645451
375.000000	24.872682
374.000000	27.079216
373.000000	29.522635
372.000000	31.403800
371.000000	32.633695
370.000000	33.286154
369.000000	33.587363
368.000000	33.075523
367.000000	32.711354
366.000000	32.192683
365.000000	31.252143
364.000000	30.512254
363.000000	29.771848
362.000000	29.784285
361.000000	27.876979
360.000000	27.032144
359.000000	26.156012
358.000000	24.492427
357.000000	23.647894
356.000000	22.733755
355.000000	21.318046
354.000000	20.517936
353.000000	18.726007
352.000000	17.750360
351.000000	16.757536
350.000000	15.235428
349.000000	14.098899
348.000000	13.072302
347.000000	11.707920
346.000000	10.676102
345.000000	9.551007
344.000000	8.550735
343.000000	7.618161
342.000000	6.572207
341.000000	5.714316
340.000000	4.942681
339.000000	4.157951
338.000000	3.571261
337.000000	2.927258
336.000000	2.385685
335.000000	1.931275
334.000000	1.508394
333.000000	1.184574
332.000000	0.910001
331.000000	0.684770
330.000000	0.501386
329.000000	0.354314
328.000000	0.248680
327.000000	0.166914
326.000000	0.108998
325.000000	0.067492
324.000000	0.040782
323.000000	0.024559
322.000000	0.014044
321.000000	0.007541
320.000000	0.003951
319.000000	0.001949
318.000000	0.000801
317.000000	0.000331
316.000000	0.000163
315.000000	0.000071
314.000000	0.000036
313.000000	0.000035
312.000000	0.000023
311.000000	0.000016
310.000000	0.000011
309.000000	0.000025
308.000000	0.000015
307.000000	0.000005
306.000000	0.000018
305.000000	0.000024
304.000000	0.000012
303.000000	0.000025
302.000000	0.000027
301.000000	0.000024
300.000000	0.000026
299.000000	0.000023
298.000000	0.000028
297.000000	0.000027
296.000000	0.000023
295.000000	0.000019
294.000000	0.000015
293.000000	0.000026
292.000000	0.000021
291.000000	0.000023
290.000000	0.000021
289.000000	0.000027
288.000000	0.000027
287.000000	0.000030
286.000000	0.000033
285.000000	0.000026
284.000000	0.000025
283.000000	0.000033
282.000000	0.000033
281.000000	0.000029
280.000000	0.000026
279.000000	0.000029
278.000000	0.000034
277.000000	0.000032
276.000000	0.000036
275.000000	0.000031
274.000000	0.000027
273.000000	0.000032
272.000000	0.000035
271.000000	0.000036
270.000000	0.000036
269.000000	0.000034
268.000000	0.000040
267.000000	0.000040
266.000000	0.000029
265.000000	0.000028
264.000000	0.000033
263.000000	0.000039
262.000000	0.000045
261.000000	0.000043
260.000000	0.000036
259.000000	0.000041
258.000000	0.000041
257.000000	0.000043
256.000000	0.000046
255.000000	0.000044
254.000000	0.000045
253.000000	0.000046
252.000000	0.000045
251.000000	0.000047
250.000000	0.000046
